# Cut-survival probability for electron-recoil events
# within the electron-recoil band
# Energy [keV] | Cut-survival probability
 0	0
 0.010001	0
 0.020002	0
 0.030003	0
 0.040004	0
 0.050005	0
 0.060006	0
 0.070007	0
 0.080008	0
 0.090009	0
 0.10001	0
 0.110011	0
 0.120012	0
 0.130013	0
 0.140014	0
 0.150015	0
 0.160016	0
 0.170017	0
 0.180018	0
 0.190019	0
 0.20002	0
 0.210021	0
 0.220022	0
 0.230023	0
 0.240024	0
 0.250025	0
 0.260026	0
 0.270027	0
 0.280028	0
 0.290029	0
 0.30003	0
 0.310031	0
 0.320032	0
 0.330033	0
 0.340034	0
 0.350035	0
 0.360036	0
 0.370037	0
 0.380038	0
 0.390039	0
 0.40004	0
 0.410041	0
 0.420042	0
 0.430043	0
 0.440044	0
 0.450045	0
 0.460046	0
 0.470047	0
 0.480048	0
 0.490049	0
 0.50005	0
 0.510051	0
 0.520052	0
 0.530053	0
 0.540054	0
 0.550055	0
 0.560056	0
 0.570057	0
 0.580058	0
 0.590059	0
 0.60006	0
 0.610061	0.121553
 0.620062	0.127698
 0.630063	0.133843
 0.640064	0.139988
 0.650065	0.146133
 0.660066	0.152278
 0.670067	0.158423
 0.680068	0.164568
 0.690069	0.170713
 0.70007	0.176862
 0.710071	0.183523
 0.720072	0.190184
 0.730073	0.196846
 0.740074	0.203507
 0.750075	0.210168
 0.760076	0.21683
 0.770077	0.223491
 0.780078	0.230152
 0.790079	0.236813
 0.80008	0.243471
 0.810081	0.249661
 0.820082	0.255851
 0.830083	0.262042
 0.840084	0.268232
 0.850085	0.274422
 0.860086	0.280612
 0.870087	0.286802
 0.880088	0.292993
 0.890089	0.299183
 0.90009	0.305366
 0.910091	0.310761
 0.920092	0.316156
 0.930093	0.32155
 0.940094	0.326945
 0.950095	0.33234
 0.960096	0.337735
 0.970097	0.34313
 0.980098	0.348525
 0.990099	0.353919
 1.0001	0.359301
 1.0101	0.363375
 1.0201	0.367448
 1.0301	0.371522
 1.0401	0.375595
 1.05011	0.379669
 1.06011	0.383742
 1.07011	0.387816
 1.08011	0.39189
 1.09011	0.395963
 1.10011	0.400037
 1.11011	0.40411
 1.12011	0.408184
 1.13011	0.412257
 1.14011	0.416331
 1.15012	0.420405
 1.16012	0.424478
 1.17012	0.428552
 1.18012	0.432625
 1.19012	0.436699
 1.20012	0.440757
 1.21012	0.443586
 1.22012	0.446415
 1.23012	0.449244
 1.24012	0.452073
 1.25013	0.454902
 1.26013	0.457731
 1.27013	0.46056
 1.28013	0.463389
 1.29013	0.466218
 1.30013	0.469047
 1.31013	0.471875
 1.32013	0.474704
 1.33013	0.477533
 1.34013	0.480362
 1.35014	0.483191
 1.36014	0.48602
 1.37014	0.488849
 1.38014	0.491678
 1.39014	0.494507
 1.40014	0.497324
 1.41014	0.499324
 1.42014	0.501323
 1.43014	0.503323
 1.44014	0.505323
 1.45015	0.507322
 1.46015	0.509322
 1.47015	0.511322
 1.48015	0.513321
 1.49015	0.515321
 1.50015	0.517321
 1.51015	0.51932
 1.52015	0.52132
 1.53015	0.52332
 1.54015	0.525319
 1.55016	0.527319
 1.56016	0.529319
 1.57016	0.531318
 1.58016	0.533318
 1.59016	0.535318
 1.60016	0.537311
 1.61016	0.538931
 1.62016	0.540551
 1.63016	0.542171
 1.64016	0.54379
 1.65017	0.54541
 1.66017	0.54703
 1.67017	0.54865
 1.68017	0.550269
 1.69017	0.551889
 1.70017	0.553509
 1.71017	0.555129
 1.72017	0.556748
 1.73017	0.558368
 1.74017	0.559988
 1.75018	0.561608
 1.76018	0.563227
 1.77018	0.564847
 1.78018	0.566467
 1.79018	0.568087
 1.80018	0.5697
 1.81018	0.57099
 1.82018	0.57228
 1.83018	0.57357
 1.84018	0.57486
 1.85019	0.57615
 1.86019	0.577439
 1.87019	0.578729
 1.88019	0.580019
 1.89019	0.581309
 1.90019	0.582599
 1.91019	0.583888
 1.92019	0.585178
 1.93019	0.586468
 1.94019	0.587758
 1.9502	0.589048
 1.9602	0.590338
 1.9702	0.591627
 1.9802	0.592917
 1.9902	0.594207
 2.0002	0.59549
 2.0102	0.596411
 2.0202	0.597332
 2.0302	0.598253
 2.0402	0.599174
 2.05021	0.600096
 2.06021	0.601017
 2.07021	0.601938
 2.08021	0.602859
 2.09021	0.60378
 2.10021	0.604701
 2.11021	0.605623
 2.12021	0.606544
 2.13021	0.607465
 2.14021	0.608386
 2.15022	0.609307
 2.16022	0.610229
 2.17022	0.61115
 2.18022	0.612071
 2.19022	0.612992
 2.20022	0.613909
 2.21022	0.61463
 2.22022	0.615351
 2.23022	0.616072
 2.24022	0.616794
 2.25023	0.617515
 2.26023	0.618236
 2.27023	0.618957
 2.28023	0.619678
 2.29023	0.620399
 2.30023	0.62112
 2.31023	0.621842
 2.32023	0.622563
 2.33023	0.623284
 2.34023	0.624005
 2.35024	0.624726
 2.36024	0.625447
 2.37024	0.626168
 2.38024	0.62689
 2.39024	0.627611
 2.40024	0.628328
 2.41024	0.628912
 2.42024	0.629495
 2.43024	0.630078
 2.44024	0.630661
 2.45025	0.631245
 2.46025	0.631828
 2.47025	0.632411
 2.48025	0.632994
 2.49025	0.633577
 2.50025	0.634161
 2.51025	0.634744
 2.52025	0.635327
 2.53025	0.63591
 2.54025	0.636493
 2.55026	0.637077
 2.56026	0.63766
 2.57026	0.638243
 2.58026	0.638826
 2.59026	0.639409
 2.60026	0.639988
 2.61026	0.640408
 2.62026	0.640827
 2.63026	0.641247
 2.64026	0.641666
 2.65027	0.642086
 2.66027	0.642505
 2.67027	0.642925
 2.68027	0.643344
 2.69027	0.643763
 2.70027	0.644183
 2.71027	0.644602
 2.72027	0.645022
 2.73027	0.645441
 2.74027	0.645861
 2.75028	0.64628
 2.76028	0.6467
 2.77028	0.647119
 2.78028	0.647539
 2.79028	0.647958
 2.80028	0.648375
 2.81028	0.648706
 2.82028	0.649036
 2.83028	0.649367
 2.84028	0.649698
 2.85029	0.650029
 2.86029	0.650359
 2.87029	0.65069
 2.88029	0.651021
 2.89029	0.651351
 2.90029	0.651682
 2.91029	0.652013
 2.92029	0.652344
 2.93029	0.652674
 2.94029	0.653005
 2.9503	0.653336
 2.9603	0.653667
 2.9703	0.653997
 2.9803	0.654328
 2.9903	0.654659
 3.0003	0.654986
 3.0103	0.655212
 3.0203	0.655439
 3.0303	0.655665
 3.0403	0.655891
 3.05031	0.656117
 3.06031	0.656343
 3.07031	0.65657
 3.08031	0.656796
 3.09031	0.657022
 3.10031	0.657248
 3.11031	0.657474
 3.12031	0.657701
 3.13031	0.657927
 3.14031	0.658153
 3.15032	0.658379
 3.16032	0.658605
 3.17032	0.658831
 3.18032	0.659058
 3.19032	0.659284
 3.20032	0.65951
 3.21032	0.659736
 3.22032	0.659962
 3.23032	0.660189
 3.24032	0.660415
 3.25033	0.660641
 3.26033	0.660867
 3.27033	0.661093
 3.28033	0.661319
 3.29033	0.661546
 3.30033	0.661772
 3.31033	0.661998
 3.32033	0.662224
 3.33033	0.66245
 3.34033	0.662677
 3.35034	0.662903
 3.36034	0.663129
 3.37034	0.663355
 3.38034	0.663581
 3.39034	0.663807
 3.40034	0.664034
 3.41034	0.66426
 3.42034	0.664486
 3.43034	0.664712
 3.44034	0.664938
 3.45035	0.665165
 3.46035	0.665391
 3.47035	0.665617
 3.48035	0.665843
 3.49035	0.666069
 3.50035	0.666292
 3.51035	0.666428
 3.52035	0.666565
 3.53035	0.666701
 3.54035	0.666837
 3.55036	0.666973
 3.56036	0.667109
 3.57036	0.667245
 3.58036	0.667382
 3.59036	0.667518
 3.60036	0.667654
 3.61036	0.66779
 3.62036	0.667926
 3.63036	0.668062
 3.64036	0.668199
 3.65037	0.668335
 3.66037	0.668471
 3.67037	0.668607
 3.68037	0.668743
 3.69037	0.668879
 3.70037	0.669016
 3.71037	0.669152
 3.72037	0.669288
 3.73037	0.669424
 3.74037	0.66956
 3.75038	0.669696
 3.76038	0.669833
 3.77038	0.669969
 3.78038	0.670105
 3.79038	0.670241
 3.80038	0.670377
 3.81038	0.670513
 3.82038	0.67065
 3.83038	0.670786
 3.84038	0.670922
 3.85039	0.671058
 3.86039	0.671194
 3.87039	0.67133
 3.88039	0.671466
 3.89039	0.671603
 3.90039	0.671739
 3.91039	0.671875
 3.92039	0.672011
 3.93039	0.672147
 3.94039	0.672283
 3.9504	0.67242
 3.9604	0.672556
 3.9704	0.672692
 3.9804	0.672828
 3.9904	0.672964
 4.0004	0.673099
 4.0104	0.67319
 4.0204	0.673282
 4.0304	0.673374
 4.0404	0.673465
 4.05041	0.673557
 4.06041	0.673648
 4.07041	0.67374
 4.08041	0.673832
 4.09041	0.673923
 4.10041	0.674015
 4.11041	0.674107
 4.12041	0.674198
 4.13041	0.67429
 4.14041	0.674382
 4.15042	0.674473
 4.16042	0.674565
 4.17042	0.674656
 4.18042	0.674748
 4.19042	0.67484
 4.20042	0.674931
 4.21042	0.675023
 4.22042	0.675115
 4.23042	0.675206
 4.24042	0.675298
 4.25043	0.67539
 4.26043	0.675481
 4.27043	0.675573
 4.28043	0.675664
 4.29043	0.675756
 4.30043	0.675848
 4.31043	0.675939
 4.32043	0.676031
 4.33043	0.676123
 4.34043	0.676214
 4.35044	0.676306
 4.36044	0.676398
 4.37044	0.676489
 4.38044	0.676581
 4.39044	0.676672
 4.40044	0.676764
 4.41044	0.676856
 4.42044	0.676947
 4.43044	0.677039
 4.44044	0.677131
 4.45045	0.677222
 4.46045	0.677314
 4.47045	0.677406
 4.48045	0.677497
 4.49045	0.677589
 4.50045	0.677679
 4.51045	0.677749
 4.52045	0.677819
 4.53045	0.677889
 4.54045	0.677958
 4.55046	0.678028
 4.56046	0.678098
 4.57046	0.678167
 4.58046	0.678237
 4.59046	0.678307
 4.60046	0.678376
 4.61046	0.678446
 4.62046	0.678516
 4.63046	0.678585
 4.64046	0.678655
 4.65047	0.678725
 4.66047	0.678795
 4.67047	0.678864
 4.68047	0.678934
 4.69047	0.679004
 4.70047	0.679073
 4.71047	0.679143
 4.72047	0.679213
 4.73047	0.679282
 4.74047	0.679352
 4.75048	0.679422
 4.76048	0.679491
 4.77048	0.679561
 4.78048	0.679631
 4.79048	0.679701
 4.80048	0.67977
 4.81048	0.67984
 4.82048	0.67991
 4.83048	0.679979
 4.84048	0.680049
 4.85049	0.680119
 4.86049	0.680188
 4.87049	0.680258
 4.88049	0.680328
 4.89049	0.680397
 4.90049	0.680467
 4.91049	0.680537
 4.92049	0.680607
 4.93049	0.680676
 4.94049	0.680746
 4.9505	0.680816
 4.9605	0.680885
 4.9705	0.680955
 4.9805	0.681025
 4.9905	0.681094
 5.0005	0.681162
 5.0105	0.681198
 5.0205	0.681234
 5.0305	0.68127
 5.0405	0.681306
 5.05051	0.681342
 5.06051	0.681377
 5.07051	0.681413
 5.08051	0.681449
 5.09051	0.681485
 5.10051	0.681521
 5.11051	0.681556
 5.12051	0.681592
 5.13051	0.681628
 5.14051	0.681664
 5.15052	0.6817
 5.16052	0.681735
 5.17052	0.681771
 5.18052	0.681807
 5.19052	0.681843
 5.20052	0.681879
 5.21052	0.681915
 5.22052	0.68195
 5.23052	0.681986
 5.24052	0.682022
 5.25053	0.682058
 5.26053	0.682094
 5.27053	0.682129
 5.28053	0.682165
 5.29053	0.682201
 5.30053	0.682237
 5.31053	0.682273
 5.32053	0.682309
 5.33053	0.682344
 5.34053	0.68238
 5.35054	0.682416
 5.36054	0.682452
 5.37054	0.682488
 5.38054	0.682523
 5.39054	0.682559
 5.40054	0.682595
 5.41054	0.682631
 5.42054	0.682667
 5.43054	0.682702
 5.44054	0.682738
 5.45055	0.682774
 5.46055	0.68281
 5.47055	0.682846
 5.48055	0.682882
 5.49055	0.682917
 5.50055	0.682952
 5.51055	0.682975
 5.52055	0.682997
 5.53055	0.683019
 5.54055	0.683041
 5.55056	0.683064
 5.56056	0.683086
 5.57056	0.683108
 5.58056	0.683131
 5.59056	0.683153
 5.60056	0.683175
 5.61056	0.683197
 5.62056	0.68322
 5.63056	0.683242
 5.64056	0.683264
 5.65057	0.683286
 5.66057	0.683309
 5.67057	0.683331
 5.68057	0.683353
 5.69057	0.683375
 5.70057	0.683398
 5.71057	0.68342
 5.72057	0.683442
 5.73057	0.683465
 5.74057	0.683487
 5.75058	0.683509
 5.76058	0.683531
 5.77058	0.683554
 5.78058	0.683576
 5.79058	0.683598
 5.80058	0.68362
 5.81058	0.683643
 5.82058	0.683665
 5.83058	0.683687
 5.84058	0.683709
 5.85059	0.683732
 5.86059	0.683754
 5.87059	0.683776
 5.88059	0.683798
 5.89059	0.683821
 5.90059	0.683843
 5.91059	0.683865
 5.92059	0.683888
 5.93059	0.68391
 5.94059	0.683932
 5.9506	0.683954
 5.9606	0.683977
 5.9706	0.683999
 5.9806	0.684021
 5.9906	0.684043
 6.0006	0.684065
 6.0106	0.684077
 6.0206	0.684088
 6.0306	0.6841
 6.0406	0.684111
 6.05061	0.684123
 6.06061	0.684135
 6.07061	0.684146
 6.08061	0.684158
 6.09061	0.68417
 6.10061	0.684181
 6.11061	0.684193
 6.12061	0.684204
 6.13061	0.684216
 6.14061	0.684228
 6.15062	0.684239
 6.16062	0.684251
 6.17062	0.684262
 6.18062	0.684274
 6.19062	0.684286
 6.20062	0.684297
 6.21062	0.684309
 6.22062	0.684321
 6.23062	0.684332
 6.24062	0.684344
 6.25063	0.684355
 6.26063	0.684367
 6.27063	0.684379
 6.28063	0.68439
 6.29063	0.684402
 6.30063	0.684413
 6.31063	0.684425
 6.32063	0.684437
 6.33063	0.684448
 6.34063	0.68446
 6.35064	0.684472
 6.36064	0.684483
 6.37064	0.684495
 6.38064	0.684506
 6.39064	0.684518
 6.40064	0.68453
 6.41064	0.684541
 6.42064	0.684553
 6.43064	0.684564
 6.44064	0.684576
 6.45065	0.684588
 6.46065	0.684599
 6.47065	0.684611
 6.48065	0.684623
 6.49065	0.684634
 6.50065	0.684646
 6.51065	0.684657
 6.52065	0.684669
 6.53065	0.684681
 6.54065	0.684692
 6.55066	0.684704
 6.56066	0.684715
 6.57066	0.684727
 6.58066	0.684739
 6.59066	0.68475
 6.60066	0.684762
 6.61066	0.684774
 6.62066	0.684785
 6.63066	0.684797
 6.64066	0.684808
 6.65067	0.68482
 6.66067	0.684832
 6.67067	0.684843
 6.68067	0.684855
 6.69067	0.684866
 6.70067	0.684878
 6.71067	0.68489
 6.72067	0.684901
 6.73067	0.684913
 6.74067	0.684925
 6.75068	0.684936
 6.76068	0.684948
 6.77068	0.684959
 6.78068	0.684971
 6.79068	0.684983
 6.80068	0.684994
 6.81068	0.685006
 6.82068	0.685017
 6.83068	0.685029
 6.84068	0.685041
 6.85069	0.685052
 6.86069	0.685064
 6.87069	0.685076
 6.88069	0.685087
 6.89069	0.685099
 6.90069	0.68511
 6.91069	0.685122
 6.92069	0.685134
 6.93069	0.685145
 6.94069	0.685157
 6.9507	0.685168
 6.9607	0.68518
 6.9707	0.685192
 6.9807	0.685203
 6.9907	0.685215
 7.0007	0.685226
 7.0107	0.68523
 7.0207	0.685233
 7.0307	0.685237
 7.0407	0.68524
 7.05071	0.685244
 7.06071	0.685247
 7.07071	0.685251
 7.08071	0.685254
 7.09071	0.685258
 7.10071	0.685261
 7.11071	0.685265
 7.12071	0.685269
 7.13071	0.685272
 7.14071	0.685276
 7.15072	0.685279
 7.16072	0.685283
 7.17072	0.685286
 7.18072	0.68529
 7.19072	0.685293
 7.20072	0.685297
 7.21072	0.685301
 7.22072	0.685304
 7.23072	0.685308
 7.24072	0.685311
 7.25073	0.685315
 7.26073	0.685318
 7.27073	0.685322
 7.28073	0.685325
 7.29073	0.685329
 7.30073	0.685332
 7.31073	0.685336
 7.32073	0.68534
 7.33073	0.685343
 7.34073	0.685347
 7.35074	0.68535
 7.36074	0.685354
 7.37074	0.685357
 7.38074	0.685361
 7.39074	0.685364
 7.40074	0.685368
 7.41074	0.685372
 7.42074	0.685375
 7.43074	0.685379
 7.44074	0.685382
 7.45075	0.685386
 7.46075	0.685389
 7.47075	0.685393
 7.48075	0.685396
 7.49075	0.6854
 7.50075	0.685403
 7.51075	0.685407
 7.52075	0.685411
 7.53075	0.685414
 7.54075	0.685418
 7.55076	0.685421
 7.56076	0.685425
 7.57076	0.685428
 7.58076	0.685432
 7.59076	0.685435
 7.60076	0.685439
 7.61076	0.685442
 7.62076	0.685446
 7.63076	0.68545
 7.64076	0.685453
 7.65077	0.685457
 7.66077	0.68546
 7.67077	0.685464
 7.68077	0.685467
 7.69077	0.685471
 7.70077	0.685474
 7.71077	0.685478
 7.72077	0.685482
 7.73077	0.685485
 7.74077	0.685489
 7.75078	0.685492
 7.76078	0.685496
 7.77078	0.685499
 7.78078	0.685503
 7.79078	0.685506
 7.80078	0.68551
 7.81078	0.685513
 7.82078	0.685517
 7.83078	0.685521
 7.84078	0.685524
 7.85079	0.685528
 7.86079	0.685531
 7.87079	0.685535
 7.88079	0.685538
 7.89079	0.685542
 7.90079	0.685545
 7.91079	0.685549
 7.92079	0.685553
 7.93079	0.685556
 7.94079	0.68556
 7.9508	0.685563
 7.9608	0.685567
 7.9708	0.68557
 7.9808	0.685574
 7.9908	0.685577
 8.0008	0.685581
 8.0108	0.685583
 8.0208	0.685584
 8.0308	0.685586
 8.0408	0.685588
 8.05081	0.68559
 8.06081	0.685591
 8.07081	0.685593
 8.08081	0.685595
 8.09081	0.685597
 8.10081	0.685599
 8.11081	0.6856
 8.12081	0.685602
 8.13081	0.685604
 8.14081	0.685606
 8.15082	0.685607
 8.16082	0.685609
 8.17082	0.685611
 8.18082	0.685613
 8.19082	0.685614
 8.20082	0.685616
 8.21082	0.685618
 8.22082	0.68562
 8.23082	0.685622
 8.24082	0.685623
 8.25083	0.685625
 8.26083	0.685627
 8.27083	0.685629
 8.28083	0.68563
 8.29083	0.685632
 8.30083	0.685634
 8.31083	0.685636
 8.32083	0.685638
 8.33083	0.685639
 8.34083	0.685641
 8.35084	0.685643
 8.36084	0.685645
 8.37084	0.685646
 8.38084	0.685648
 8.39084	0.68565
 8.40084	0.685652
 8.41084	0.685654
 8.42084	0.685655
 8.43084	0.685657
 8.44084	0.685659
 8.45085	0.685661
 8.46085	0.685662
 8.47085	0.685664
 8.48085	0.685666
 8.49085	0.685668
 8.50085	0.685669
 8.51085	0.685671
 8.52085	0.685673
 8.53085	0.685675
 8.54085	0.685677
 8.55086	0.685678
 8.56086	0.68568
 8.57086	0.685682
 8.58086	0.685684
 8.59086	0.685685
 8.60086	0.685687
 8.61086	0.685689
 8.62086	0.685691
 8.63086	0.685693
 8.64086	0.685694
 8.65087	0.685696
 8.66087	0.685698
 8.67087	0.6857
 8.68087	0.685701
 8.69087	0.685703
 8.70087	0.685705
 8.71087	0.685707
 8.72087	0.685709
 8.73087	0.68571
 8.74087	0.685712
 8.75088	0.685714
 8.76088	0.685716
 8.77088	0.685717
 8.78088	0.685719
 8.79088	0.685721
 8.80088	0.685723
 8.81088	0.685725
 8.82088	0.685726
 8.83088	0.685728
 8.84088	0.68573
 8.85089	0.685732
 8.86089	0.685733
 8.87089	0.685735
 8.88089	0.685737
 8.89089	0.685739
 8.90089	0.68574
 8.91089	0.685742
 8.92089	0.685744
 8.93089	0.685746
 8.94089	0.685748
 8.9509	0.685749
 8.9609	0.685751
 8.9709	0.685753
 8.9809	0.685755
 8.9909	0.685756
 9.0009	0.685758
 9.0109	0.685759
 9.0209	0.68576
 9.0309	0.685762
 9.0409	0.685763
 9.05091	0.685764
 9.06091	0.685765
 9.07091	0.685766
 9.08091	0.685767
 9.09091	0.685768
 9.10091	0.685769
 9.11091	0.685771
 9.12091	0.685772
 9.13091	0.685773
 9.14091	0.685774
 9.15092	0.685775
 9.16092	0.685776
 9.17092	0.685777
 9.18092	0.685778
 9.19092	0.68578
 9.20092	0.685781
 9.21092	0.685782
 9.22092	0.685783
 9.23092	0.685784
 9.24092	0.685785
 9.25093	0.685786
 9.26093	0.685788
 9.27093	0.685789
 9.28093	0.68579
 9.29093	0.685791
 9.30093	0.685792
 9.31093	0.685793
 9.32093	0.685794
 9.33093	0.685795
 9.34093	0.685797
 9.35094	0.685798
 9.36094	0.685799
 9.37094	0.6858
 9.38094	0.685801
 9.39094	0.685802
 9.40094	0.685803
 9.41094	0.685804
 9.42094	0.685806
 9.43094	0.685807
 9.44094	0.685808
 9.45095	0.685809
 9.46095	0.68581
 9.47095	0.685811
 9.48095	0.685812
 9.49095	0.685814
 9.50095	0.685815
 9.51095	0.685816
 9.52095	0.685817
 9.53095	0.685818
 9.54095	0.685819
 9.55096	0.68582
 9.56096	0.685821
 9.57096	0.685823
 9.58096	0.685824
 9.59096	0.685825
 9.60096	0.685826
 9.61096	0.685827
 9.62096	0.685828
 9.63096	0.685829
 9.64096	0.68583
 9.65097	0.685832
 9.66097	0.685833
 9.67097	0.685834
 9.68097	0.685835
 9.69097	0.685836
 9.70097	0.685837
 9.71097	0.685838
 9.72097	0.685839
 9.73097	0.685841
 9.74097	0.685842
 9.75098	0.685843
 9.76098	0.685844
 9.77098	0.685845
 9.78098	0.685846
 9.79098	0.685847
 9.80098	0.685849
 9.81098	0.68585
 9.82098	0.685851
 9.83098	0.685852
 9.84098	0.685853
 9.85099	0.685854
 9.86099	0.685855
 9.87099	0.685856
 9.88099	0.685858
 9.89099	0.685859
 9.90099	0.68586
 9.91099	0.685861
 9.92099	0.685862
 9.93099	0.685863
 9.94099	0.685864
 9.951	0.685865
 9.961	0.685867
 9.971	0.685868
 9.981	0.685869
 9.991	0.68587
 10.001	0.685871
 10.011	0.685872
 10.021	0.685873
 10.031	0.685874
 10.041	0.685876
 10.051	0.685877
 10.061	0.685878
 10.071	0.685879
 10.081	0.68588
 10.091	0.685881
 10.101	0.685882
 10.111	0.685884
 10.121	0.685885
 10.131	0.685886
 10.141	0.685887
 10.151	0.685888
 10.161	0.685889
 10.171	0.68589
 10.181	0.685891
 10.191	0.685893
 10.201	0.685894
 10.211	0.685895
 10.221	0.685896
 10.231	0.685897
 10.241	0.685898
 10.251	0.685899
 10.261	0.6859
 10.271	0.685902
 10.281	0.685903
 10.291	0.685904
 10.301	0.685905
 10.311	0.685906
 10.321	0.685907
 10.331	0.685908
 10.341	0.685909
 10.351	0.685911
 10.361	0.685912
 10.371	0.685913
 10.381	0.685914
 10.391	0.685915
 10.401	0.685916
 10.411	0.685917
 10.421	0.685919
 10.431	0.68592
 10.441	0.685921
 10.451	0.685922
 10.461	0.685923
 10.471	0.685924
 10.481	0.685925
 10.491	0.685926
 10.5011	0.685928
 10.5111	0.685929
 10.5211	0.68593
 10.5311	0.685931
 10.5411	0.685932
 10.5511	0.685933
 10.5611	0.685934
 10.5711	0.685935
 10.5811	0.685937
 10.5911	0.685938
 10.6011	0.685939
 10.6111	0.68594
 10.6211	0.685941
 10.6311	0.685942
 10.6411	0.685943
 10.6511	0.685944
 10.6611	0.685946
 10.6711	0.685947
 10.6811	0.685948
 10.6911	0.685949
 10.7011	0.68595
 10.7111	0.685951
 10.7211	0.685952
 10.7311	0.685954
 10.7411	0.685955
 10.7511	0.685956
 10.7611	0.685957
 10.7711	0.685958
 10.7811	0.685959
 10.7911	0.68596
 10.8011	0.685961
 10.8111	0.685963
 10.8211	0.685964
 10.8311	0.685965
 10.8411	0.685966
 10.8511	0.685967
 10.8611	0.685968
 10.8711	0.685969
 10.8811	0.68597
 10.8911	0.685972
 10.9011	0.685973
 10.9111	0.685974
 10.9211	0.685975
 10.9311	0.685976
 10.9411	0.685977
 10.9511	0.685978
 10.9611	0.68598
 10.9711	0.685981
 10.9811	0.685982
 10.9911	0.685983
 11.0011	0.685984
 11.0111	0.685985
 11.0211	0.685987
 11.0311	0.685988
 11.0411	0.685989
 11.0511	0.68599
 11.0611	0.685992
 11.0711	0.685993
 11.0811	0.685994
 11.0911	0.685996
 11.1011	0.685997
 11.1111	0.685998
 11.1211	0.686
 11.1311	0.686001
 11.1411	0.686002
 11.1511	0.686003
 11.1611	0.686005
 11.1711	0.686006
 11.1811	0.686007
 11.1911	0.686009
 11.2011	0.68601
 11.2111	0.686011
 11.2211	0.686012
 11.2311	0.686014
 11.2411	0.686015
 11.2511	0.686016
 11.2611	0.686018
 11.2711	0.686019
 11.2811	0.68602
 11.2911	0.686021
 11.3011	0.686023
 11.3111	0.686024
 11.3211	0.686025
 11.3311	0.686027
 11.3411	0.686028
 11.3511	0.686029
 11.3611	0.686031
